intensity	intU	qVal
3.1999787e+10	140894.89	0.0024999999
4.0000143e+09	60951.211	0.0049999999
1.1851543e+09	886.11749	0.0074999998
4.9999517e+08	31899.936	0.0099999998
2.5600115e+08	27233.494	0.0125
1.4814702e+08	5904.8936	0.015
93281160	23478.441	0.0175
62507240	2829.6082	0.02
43911624	5000.2534	0.022500001
31996742	362.21484	0.025
24048664	3628.0554	0.0275
18508976	6165.9292	0.029999999
14563753	4584.1729	0.032499999
11660245	4512.3643	0.035
9480584	3315.6218	0.037500001
7813645.5	1382.0138	0.039999999
6513248.5	1184.5608	0.0425
5487671	793.38824	0.045000002
4667040	2253.3215	0.047499999
4003004.2	2170.9778	0.050000001
3458962.8	556.84265	0.052499998
3007601.2	1217.5068	0.055
2628828.5	948.72565	0.057500001
2315407.5	659.52087	0.059999999
2049041	617.38611	0.0625
1822337.1	420.45493	0.064999998
1626900.2	1578.7124	0.067500003
1460150.5	2833.0217	0.07
1313090.1	1516.0369	0.072499998
1183020	2082.1699	0.075000003
1075039.4	330.05658	0.077500001
978634.88	1461.2441	0.079999998
890616.81	336.91577	0.082500003
814787.38	188.61513	0.085000001
746742.69	935.5824	0.087499999
685522.56	186.45171	0.090000004
632668.88	108.28828	0.092500001
583976.94	246.89384	0.094999999
540430.19	495.90851	0.097499996
500205.88	724.42493	0.1
465315.88	470.68732	0.1025
431903.91	1165.3615	0.105
403793.09	362.33621	0.1075
376936.5	225.75064	0.11
351921.53	1049.4185	0.1125
329140.53	158.57498	0.115
308433.03	506.53922	0.1175
289776.78	735.75616	0.12
272559.66	180.23584	0.1225
257322.03	22.89776	0.125
242176.41	258.46832	0.1275
227979.92	390.04684	0.13
215542.83	70.461891	0.13249999
203860.06	877.65295	0.13500001
192513.5	612.59772	0.1375
183699.98	751.89862	0.14
173503.11	506.72949	0.1425
164832.83	439.80389	0.145
156996.69	36.767307	0.14749999
149811.69	244.45975	0.15000001
141959.98	555.1748	0.1525
134967.3	102.13547	0.155
129174.31	60.621983	0.1575
123728.43	517.9491	0.16
116634.27	138.62924	0.16249999
111993.7	177.3246	0.16500001
107103.19	747.12	0.1675
102948.27	1.8041334	0.17
98208.852	608.20453	0.1725
93881.25	236.67241	0.175
90356.953	91.623306	0.17749999
86525.742	51.054501	0.18000001
83339.367	62.630272	0.1825
79488.656	143.06436	0.185
76986.664	322.78339	0.1875
73887.18	251.22479	0.19
70597.945	23.92663	0.1925
68370.258	169.28279	0.19499999
65608.141	34.117203	0.19750001
63399.746	215.94365	0.2
61068.113	313.1011	0.2025
58547.559	461.68494	0.205
56845.824	36.310299	0.2075
54835.586	93.649139	0.20999999
53284.012	24.269463	0.21250001
51116.645	414.94095	0.215
49446.68	205.19647	0.2175
47940.359	180.88068	0.22
46344.703	151.89267	0.2225
45056.121	169.93663	0.22499999
43153.262	267.11832	0.22750001
42138.414	292.66943	0.23
40790.684	37.346825	0.2325
39348.43	366.34705	0.235
38241.941	77.736305	0.2375
37223.137	92.250381	0.23999999
36171.047	318.57501	0.24250001
35069.871	122.14252	0.245
34166.98	431.93341	0.2475
32955.684	271.54639	0.25
32288.982	186.31827	0.2525
31035.793	27.246874	0.255
30486.891	180.02528	0.25749999
29377.881	65.784363	0.25999999
28783.779	171.83086	0.26249999
28402.312	97.654938	0.26499999
27497.9	112.41921	0.26750001
26956.797	270.78003	0.27000001
26017.498	122.3502	0.27250001
25439.646	73.39019	0.27500001
24891.602	380.98993	0.2775
24261.094	145.47469	0.28
23440.217	99.982628	0.2825
23452.205	92.72303	0.285
22669.506	48.332497	0.28749999
22329.486	44.862087	0.28999999
21979.67	47.108524	0.29249999
21230.281	159.5201	0.29499999
20983.961	47.320057	0.29750001
20508.762	83.666344	0.30000001
20093.953	145.18909	0.30250001
19908.869	21.519989	0.30500001
19403.508	124.03778	0.3075
19193.689	13.305991	0.31
18846.793	15.01525	0.3125
18951.967	93.311165	0.315
18626.854	162.18918	0.3175
18631.92	86.878372	0.31999999
18424.127	209.84738	0.32249999
18448.936	180.01782	0.32499999
18518.885	39.722336	0.32749999
18359.688	47.734867	0.33000001
18409.084	139.92815	0.33250001
18741.82	49.359707	0.33500001
19029.574	137.76268	0.33750001
19692.229	52.898018	0.34
20529.037	190.5486	0.3425
21129.771	193.72878	0.345
22684.311	115.7686	0.3475
23687.32	128.81978	0.34999999
25860.377	100.55669	0.35249999
28278.48	49.142483	0.35499999
31270.277	161.86386	0.35749999
34385.035	40.241627	0.36000001
38497.645	80.766029	0.36250001
41512.016	291.89883	0.36500001
43800.379	13.199521	0.36750001
44653.609	33.094952	0.37
43032.039	49.461987	0.3725
39855.617	25.895958	0.375
35801.883	8.622303	0.3775
31550.312	34.289734	0.38
28175.932	142.95978	0.38249999
25220.469	209.45662	0.38499999
22183.66	297.23819	0.38749999
20426.781	192.6499	0.38999999
18287.963	11.80943	0.39250001
16839.131	82.522285	0.39500001
15457.868	14.93423	0.39750001
14746.573	57.614803	0.40000001
13659.668	145.47867	0.4025
13104.204	12.445396	0.405
12187.548	131.1712	0.4075
11779.525	32.465313	0.41
11331.569	83.294731	0.41249999
10605.438	86.411903	0.41499999
10381.188	120.93568	0.41749999
10174.867	161.32266	0.41999999
9536.0781	83.178917	0.42250001
9279.5713	43.949451	0.42500001
8961.7861	68.201675	0.42750001
8914.585	106.82252	0.43000001
8571.1445	33.865231	0.4325
8521.2168	113.67706	0.435
8106.9053	90.984734	0.4375
7998.4438	152.10759	0.44
7763.2734	9.9049759	0.4425
7572.1279	91.160988	0.44499999
7525.877	36.193291	0.44749999
7237.9458	14.150804	0.44999999
7000.7627	44.644608	0.45249999
7152.7788	94.231285	0.45500001
6875.6362	25.867781	0.45750001
6882.604	38.651749	0.46000001
6634.2397	97.859055	0.46250001
6458.0771	3.5309727	0.465
6496.3853	72.234512	0.4675
6425.7402	15.29754	0.47
6276.3677	191.51891	0.4725
6187.5244	86.006844	0.47499999
5975.4761	26.445705	0.47749999
5855.5977	161.40314	0.47999999
5823.085	32.113647	0.48249999
5703.1333	108.1588	0.48500001
5669.4771	74.69648	0.48750001
5635.9609	65.525185	0.49000001
5505.8242	43.792976	0.49250001
5392.6016	11.416232	0.495
5402.1387	91.711143	0.4975
5330.9932	37.95293	0.5
5202.1484	15.558462	0.5025
5078.7891	136.04585	0.505
5132.0151	43.527058	0.50749999
4986.7397	2.5377927	0.50999999
4895.688	78.576546	0.51249999
4888.856	129.48788	0.51499999
4875.1484	21.271086	0.51749998
4753.2271	36.115437	0.51999998
4810.8564	157.91121	0.52249998
4727.3394	40.79958	0.52499998
4677.5039	19.764338	0.52749997
4451.3545	129.42978	0.52999997
4576.8789	32.602051	0.53250003
4571.9077	68.719742	0.53500003
4449.9487	37.691231	0.53750002
4546.1133	113.95775	0.54000002
4469.9746	16.98793	0.54250002
4339.272	51.408554	0.54500002
4366.4868	35.808643	0.54750001
4216.7915	23.712164	0.55000001
4208.2881	39.176926	0.55250001
4073.9888	40.58493	0.55500001
4126.4854	24.926287	0.5575
4128.686	64.523796	0.56
4152.5713	146.81726	0.5625
4049.8013	59.268219	0.565
3933.6538	141.10049	0.5675
4006.3325	30.299475	0.56999999
3843.7637	35.319199	0.57249999
3984.615	37.255707	0.57499999
3903.0547	73.886955	0.57749999
3863.6562	56.911407	0.57999998
3914.8733	56.044472	0.58249998
3849.105	46.986141	0.58499998
3918.6006	34.750584	0.58749998
3819.5881	26.926819	0.58999997
3760.1516	88.364021	0.59249997
3822.8347	27.552162	0.59500003
3779.0203	70.130409	0.59750003
3888.8516	93.452324	0.60000002
3832.0583	39.05357	0.60250002
3786.0654	35.188286	0.60500002
3780.9919	130.74576	0.60750002
3798.3979	17.896652	0.61000001
3699.8345	50.528687	0.61250001
3816.1892	21.744827	0.61500001
3799.2964	82.303627	0.61750001
3752.4971	102.66273	0.62
3725.6074	33.589008	0.6225
3824.2996	20.972961	0.625
3679.7344	5.6291471	0.6275
3736.3218	4.1735168	0.63
3856.8469	112.76106	0.63249999
3958.2585	89.37365	0.63499999
3822.3491	74.122581	0.63749999
3961.9155	88.69413	0.63999999
3920.6946	113.077	0.64249998
3965.8325	167.34775	0.64499998
4157.8472	9.2451868	0.64749998
4125.2114	20.902069	0.64999998
4243.9487	13.964624	0.65249997
4227.1982	2.4436817	0.65499997
4228.8018	13.151093	0.65750003
4385.5342	7.5822749	0.66000003
4603.2861	104.16361	0.66250002
4507.1621	11.493212	0.66500002
4741.896	45.984238	0.66750002
4705.7344	58.643665	0.67000002
4870.5259	20.519045	0.67250001
4980.0903	61.745319	0.67500001
5160.7114	33.524734	0.67750001
5253.3931	16.530746	0.68000001
5460.4077	61.585003	0.6825
5797.6968	111.16817	0.685
6242.4419	10.794725	0.6875
6261.8623	58.412392	0.69
6657.1313	100.97243	0.6925
6909.4575	125.51868	0.69499999
7472.4521	43.238331	0.69749999
7749.3271	102.64228	0.69999999
8427.3184	110.05472	0.70249999
8840.251	98.972832	0.70499998
9654.2549	27.942762	0.70749998
10273.438	99.457474	0.70999998
10989.39	8.7341251	0.71249998
11910.975	54.676888	0.71499997
12806.215	124.846	0.71749997
14057.849	17.961006	0.72000003
15078.748	42.208134	0.72250003
16332.574	132.41461	0.72500002
17356.334	334.31143	0.72750002
18243.477	7.7671232	0.73000002
18888.35	33.279827	0.73250002
19686.277	125.84245	0.73500001
20158.828	304.45044	0.73750001
20147.348	36.438606	0.74000001
19987.455	167.87808	0.74250001
19461.018	113.68414	0.745
18469.424	219.43921	0.7475
17461.943	8.0387373	0.75
16240.764	133.20447	0.7525
15294.399	123.96674	0.755
14099.237	168.34509	0.75749999
13164.044	22.890526	0.75999999
12209.623	20.201933	0.76249999
11212.466	149.97638	0.76499999
10314.078	190.0538	0.76749998
9535.9316	69.723221	0.76999998
8732.6494	69.092651	0.77249998
8255.0127	11.950612	0.77499998
7835.7803	35.148006	0.77749997
7367.125	131.51363	0.77999997
6886.978	50.693176	0.78250003
6259.749	39.598427	0.78500003
6195.1475	71.844437	0.78750002
5700.8696	117.32938	0.79000002
5393.3989	71.593376	0.79250002
5211.8579	85.771568	0.79500002
4862.9468	58.822311	0.79750001
4701.5957	67.60833	0.80000001
4750.9941	2.4300311	0.80250001
4441.7593	18.889738	0.80500001
4259.6616	119.22261	0.8075
4060.4326	52.195465	0.81
3978.3589	141.8145	0.8125
3892.4973	133.05006	0.815
3697.6924	43.842552	0.8175
3634.1831	11.73572	0.81999999
3471.3376	10.217767	0.82249999
3474.4529	70.617134	0.82499999
3461.1475	7.1154332	0.82749999
3340.3442	3.3280818	0.82999998
3257.8784	1.5879668	0.83249998
3264.2356	10.160395	0.83499998
3078.5818	38.775093	0.83749998
3020.1792	88.767044	0.83999997
3026.2915	95.898613	0.84249997
2950.7515	99.202759	0.84500003
2977.8093	39.779526	0.84750003
2901.0906	48.743793	0.85000002
2811.4104	151.18555	0.85250002
2896.2795	53.433086	0.85500002
2841.5967	2.8473308	0.85750002
2882.4016	143.96159	0.86000001
2789.2847	32.815056	0.86250001
2640.1768	8.2771692	0.86500001
2635.925	20.556896	0.86750001
2664.3093	1.2591684	0.87
2708.6294	94.439445	0.8725
2632.6245	67.666946	0.875
2570.6333	19.633108	0.8775
2615.0088	35.435589	0.88
2620.416	9.4056683	0.88249999
2565.6753	21.81069	0.88499999
2555.1272	3.7278202	0.88749999
2614.6106	55.42543	0.88999999
2548.4084	25.196703	0.89249998
2461.1008	0.81514513	0.89499998
2504.2478	18.194481	0.89749998
2572.2776	41.282608	0.89999998
2534.3621	5.2520838	0.90249997
2454.5466	60.30278	0.90499997
2420.761	34.170139	0.90750003
2496.3774	37.043938	0.91000003
2597.0989	86.690117	0.91250002
2559.7375	66.25351	0.91500002
2477.6187	70.429466	0.91750002
2560.7573	46.836781	0.92000002
2532.4802	31.012375	0.92250001
2487.5383	4.5887327	0.92500001
2329.2607	9.9109154	0.92750001
2589.6709	47.204815	0.93000001
2474.4194	11.142364	0.9325
2585.1233	17.367849	0.935
2579.0479	1.1684288	0.9375
2640.9351	35.466534	0.94
2613.3381	21.905052	0.9425
2580.0085	71.557976	0.94499999
2611.2734	90.01609	0.94749999
2542.1699	32.122307	0.94999999
2650.2095	32.887135	0.95249999
2637.5291	14.896123	0.95499998
2682.8228	19.408363	0.95749998
2744.8157	14.320572	0.95999998
2646.1416	71.981339	0.96249998
2775.0393	68.876396	0.96499997
2757.3892	3.1430585	0.96749997
2811.6689	2.3316646	0.97000003
2858.4736	120.46734	0.97250003
2882.8628	0.84659326	0.97500002
2919.8066	99.700447	0.97750002
2915.1086	12.38142	0.98000002
2973.3801	62.615646	0.98250002
3083.8477	71.506752	0.98500001
3122.78	18.58526	0.98750001
3093.123	23.977049	0.99000001
3129.3572	32.913551	0.99250001
3162.0962	6.8260651	0.995
3209.252	49.782528	0.9975
3382.7766	40.487022	1
3404.5359	2.9705083	1.0025001
3449.6646	76.607147	1.005
3477.9756	12.619273	1.0075001
3557.0176	7.3394761	1.01
3662.9893	123.96993	1.0125
3663.6631	33.263065	1.015
3674.5291	56.248211	1.0175
3888.6128	38.506508	1.02
3876.6792	36.131794	1.0225
4075.7773	79.468941	1.025
4162.4023	59.172821	1.0275
4187.5327	30.815527	1.03
4090.6892	82.983398	1.0325
4436.5781	100.67413	1.035
4511.9341	40.48872	1.0375
4664.0181	14.714867	1.04
4861.9355	85.239487	1.0425
5006.8037	20.938112	1.045
5238.6689	136.78928	1.0475
5237.4487	77.34095	1.05
5363.0986	34.487408	1.0525
5514.4336	93.904091	1.0549999
5762.7739	15.343857	1.0575
6039.7471	27.855183	1.0599999
6057.8535	97.489204	1.0625
6308.3335	88.841148	1.0650001
6351.2266	26.877621	1.0675
6582.5635	87.006821	1.0700001
6784.0874	90.947479	1.0725
7150.5767	75.275932	1.075
7281.397	53.310581	1.0775
7328.3481	4.7620955	1.08
7478.2065	41.639595	1.0825
7786.3901	28.362366	1.085
7970.0737	138.38225	1.0875
8326.4795	36.516613	1.09
8374.0039	12.529963	1.0925
8354.8027	402.24527	1.095
8480.8047	9.736002	1.0975
8573.5957	147.53748	1.1
8486.9287	37.69664	1.1025
8689.3193	95.99012	1.105
8702.6426	4.3652949	1.1075
8699.2656	52.958389	1.11
8580.0684	194.44594	1.1125
8691.3213	31.532925	1.115
8587.251	102.40884	1.1174999
8391.8936	209.81825	1.12
8526.2109	63.268383	1.1224999
8320.2061	3.9976399	1.125
8159.48	7.4033642	1.1275001
7930.5747	103.90269	1.13
7914.1709	17.758694	1.1325001
7585.9634	14.138479	1.135
7483.3833	121.82305	1.1375
7367.6567	13.626187	1.14
7162.6113	37.405071	1.1425
6814.1699	132.7644	1.145
6715.9507	161.09447	1.1475
6535.1777	66.256027	1.15
6369.2837	113.86678	1.1525
6111.8408	6.0616655	1.155
6145.9141	7.6599646	1.1575
5770.2192	42.0047	1.16
5780.4199	7.5593376	1.1625
5344.7529	66.50238	1.165
5412.1885	34.908947	1.1675
5288.4355	40.539005	1.17
4953.6704	27.270819	1.1725
4885.8003	75.25695	1.175
4810.7461	131.30008	1.1775
4560.6279	78.967155	1.1799999
4615.3745	30.111031	1.1825
4425.5737	48.631191	1.1849999
4357.3594	48.766106	1.1875
4148.7314	57.339031	1.1900001
4093.2583	33.233078	1.1925
4212.0347	152.75223	1.1950001
4021.6741	17.943972	1.1975
3781.6428	153.02007	1.2
3858.4558	66.882233	1.2025
3683.2644	33.638794	1.205
3654.9299	22.356915	1.2075
3624.7153	51.776798	1.21
3592.2358	55.63821	1.2125
3601.6121	16.048441	1.215
3471.396	70.819321	1.2175
3455.1958	130.36902	1.22
3419.0107	15.912388	1.2225
3324.7119	12.943022	1.225
3335.5876	1.2868193	1.2275
3277.0017	94.568344	1.23
3182.8567	19.116837	1.2325
3093.3491	25.66605	1.235
3129.7056	49.943016	1.2375
3176.687	1.0675659	1.24
3076.918	33.285709	1.2424999
3050.0269	1.2198991	1.245
3135.9666	37.073685	1.2474999
2885.4241	74.265572	1.25
2918.4736	25.33721	1.2525001
2910.7771	10.402595	1.255
2877.3186	21.314524	1.2575001
2951.5027	66.532013	1.26
2961.6499	22.506166	1.2625
2819.76	90.553619	1.265
2878.231	39.805603	1.2675
2869.1431	109.00614	1.27
2737.209	23.785236	1.2725
2872.3743	9.3444204	1.275
2660.0923	54.792229	1.2775
2776.666	6.5150948	1.28
2805.0542	20.324785	1.2825
2793.0642	152.039	1.285
2783.1416	14.661043	1.2875
2858.3083	18.840336	1.29
2753.5415	144.06195	1.2925
2725.8184	33.078815	1.295
2758.4341	2.7004039	1.2975
2719.6829	87.873238	1.3
2826.717	32.495995	1.3025
2791.324	8.1184711	1.3049999
2838.9607	32.299595	1.3075
2891.2395	30.068003	1.3099999
2837.2266	21.431198	1.3125
2824.6392	85.890854	1.3150001
2897.803	50.742348	1.3175
2926.4346	10.370724	1.3200001
2920.1804	59.046757	1.3225
2991.4268	111.3986	1.325
2852.6729	6.7281556	1.3275
3014.9517	5.4867783	1.33
3027.0718	21.515533	1.3325
2971.4893	39.757843	1.335
2964.6733	14.357972	1.3375
3095.9062	38.935303	1.34
3066.0916	20.487619	1.3425
2982.6475	29.341026	1.345
3129.447	23.8799	1.3475
3081.5938	32.579014	1.35
3150.4453	88.909431	1.3525
3162.6111	4.7228351	1.355
3259.2002	6.1891747	1.3575
3260.1301	8.4276714	1.36
3223.772	4.4574723	1.3625
3334.6223	56.441422	1.365
3350.0957	5.2342949	1.3674999
3379.1475	50.805248	1.37
3395.0068	104.72644	1.3724999
3407.2153	10.220613	1.375
3448.26	121.77079	1.3775001
3469.5532	109.85394	1.38
3573.1479	29.567621	1.3825001
3578.7957	70.595116	1.385
3640.3804	51.950459	1.3875
3635.791	47.663467	1.39
3729.6011	14.824599	1.3925
3776.1479	102.59071	1.395
3779.3101	41.906067	1.3975
3891.6697	12.472272	1.4
3857.4988	105.92297	1.4025
4007.5786	23.965899	1.405
3980.3323	41.101521	1.4075
3974.26	147.10817	1.41
4009.4917	39.246147	1.4125
4012.4536	48.11729	1.415
4037.9209	35.296898	1.4175
4160.3608	14.611901	1.42
4187.771	103.19712	1.4225
4317.7998	105.05293	1.425
4200.5288	41.89785	1.4275
4335.2915	32.876858	1.4299999
4336.5449	96.883003	1.4325
4513.1045	59.091732	1.4349999
4386.3237	89.410797	1.4375
4583.1479	51.484509	1.4400001
4482.915	40.00116	1.4425
4592.3755	36.85397	1.4450001
4655.0063	61.321747	1.4475
4614.9912	38.048702	1.45
4698.7241	58.26712	1.4525
4684.8872	79.443222	1.455
4740.8247	25.023968	1.4575
4684.8486	38.487938	1.46
4812.3193	118.28202	1.4625
4695.4893	7.1391969	1.465
4756.0156	50.695042	1.4675
4918.8472	59.739105	1.47
4615.3604	54.74976	1.4725
4783.3438	72.875481	1.475
4873.709	50.948997	1.4775
4882.9731	51.409477	1.48
4810.0972	17.559912	1.4825
4880.8403	20.638083	1.485
4794.0137	57.361629	1.4875
4900.0215	40.740868	1.49
4866.167	64.128914	1.4924999
4750.1016	40.847897	1.495
4845.5132	18.444824	1.4974999
4717.2427	7.0800967	1.5
4559.2051	12.577904	1.5025001
4722.8032	24.399006	1.505
4828.7104	36.406448	1.5075001
4625.2266	5.933497	1.51
4696.2822	35.808502	1.5125
4572.6362	89.143074	1.515
4413.7197	98.192207	1.5175
4566.1509	39.33334	1.52
4511.647	70.647667	1.5225
4541.9956	70.730301	1.525
4409.7563	52.906933	1.5275
4419.2124	97.706635	1.53
4297.3857	14.332404	1.5325
4241.6216	61.005623	1.535
4136.4785	79.773819	1.5375
4255.5361	27.065325	1.54
4049.5964	55.479713	1.5425
4144.8335	2.6748285	1.545
4141.9409	5.2176681	1.5475
4066.8835	85.082954	1.55
3933.5798	29.913746	1.5525
4019.1887	64.190948	1.5549999
3905.6152	10.637156	1.5575
3927.9055	36.397686	1.5599999
3783.8423	147.73767	1.5625
3794.3962	39.244068	1.5650001
3724.4058	10.621519	1.5675
3800.3591	51.943901	1.5700001
3711.9492	161.16803	1.5725
3579.1838	70.431778	1.575
3596.895	2.4871385	1.5775
3648.9016	28.831514	1.58
3551.2983	79.236549	1.5825
3550.9399	62.068615	1.585
3461.167	13.21995	1.5875
3437.9402	98.501808	1.59
3427.1162	42.799515	1.5925
3303.6484	15.990945	1.595
3418.0378	31.878979	1.5975
3343.9109	31.880644	1.6
3323.2119	37.735874	1.6025
3271.8921	92.870399	1.605
3368.6475	95.501457	1.6075
3082.4377	29.088469	1.61
3243.6057	88.935799	1.6125
3129.0447	33.771404	1.615
3252.1201	16.66123	1.6174999
3185.9553	38.153194	1.62
3210.6868	57.633991	1.6224999
3189.2896	6.6951022	1.625
3047.0032	18.539677	1.6275001
3077.085	42.308537	1.63
3084.5969	43.509171	1.6325001
3033.4722	107.96405	1.635
2998.8022	69.923798	1.6375
2990.4719	185.5168	1.64
2911.551	35.194458	1.6425
3074.6777	34.790909	1.645
3022.8892	42.532528	1.6475
3079.5334	61.076889	1.65
3007.1604	68.981812	1.6525
2927.1968	34.041729	1.655
2926.4736	104.47265	1.6575
2968.2842	23.002668	1.66
2971.3425	35.175152	1.6625
2954.6338	15.640549	1.665
2899.8633	58.986835	1.6675
2909.7141	110.61294	1.67
2920.1138	33.048771	1.6725
2971.6025	0.27830678	1.675
2949.4292	21.921597	1.6775
2961.6272	34.555676	1.6799999
2927.4299	20.122551	1.6825
2965.5784	7.3259239	1.6849999
2942.426	11.537424	1.6875
2863.6326	8.9588556	1.6900001
2908.0349	26.147011	1.6925
2885.8564	6.328383	1.6950001
2872.7874	57.541698	1.6975
2940.2568	43.926636	1.7
2932.0388	8.0955057	1.7025
2907.7065	13.240372	1.705
3023.4387	85.828606	1.7075
2931.7014	5.4250951	1.71
